# Based on Cell27 C/5 chg & dichg cycle,
# time [s],current [A]
0,-0.99996
10,-0.99998
20,-1.0005
30,-0.99986
40,-1
50,-1.0003
60,-1.0003
70,-1.0005
80,-1.0002
90,-1.0002
100,-0.9999
110,-0.99984
120,-0.99992
130,-1.0003
140,-0.9999
150,-1.0001
160,-1.0001
170,-0.9999
180,-1
190,-0.99982
200,-0.99996
210,-1.0001
220,-1.0002
230,-1
240,-1.0003
250,-1
260,-0.99986
270,-1.0003
280,-0.99998
290,-0.99998
300,-1
310,-0.99998
320,-0.9999
330,-0.99982
340,-0.99988
350,-1.0003
360,-1.0003
370,-0.99978
380,-1.0001
390,-1.0004
400,-1.0002
410,-0.99982
420,-0.99984
430,-0.9999
440,-1.0003
450,-1
460,-1.0002
470,-1.0001
480,-1.0001
490,-1.0001
500,-1.0001
510,-1.0002
520,-1.0001
530,-1
540,-1
550,-1.0001
560,-1.0001
570,-1.0001
580,-1
590,-1
600,-1.0001
610,-1.0001
620,-1.0002
630,-1.0001
640,-1.0001
650,-1
660,-1
670,-1.0001
680,-1.0001
690,-1.0001
700,-1.0001
710,-1.0001
720,-1.0001
730,-1
740,-1.0001
750,-1
760,-1.0002
770,-1.0001
780,-1.0002
790,-1
800,-1.0001
810,-0.99996
820,-0.9999
830,-1.0001
840,-1.0001
850,-1
860,-1.0002
870,-1.0001
880,-1.0001
890,-1
900,-1
910,-1.0001
920,-1.0001
930,-1
940,-1.0001
950,-1.0001
960,-1.0001
970,-1.0001
980,-1
990,-1.0001
1000,-0.99996
1010,-1.0001
1020,-1.0001
1030,-1.0002
1040,-1.0001
1050,-1.0001
1060,-1
1070,-0.99998
1080,-1.0001
1090,-1
1100,-1
1110,-1.0001
1120,-1.0001
1130,-0.99994
1140,-1.0001
1150,-1.0002
1160,-0.99998
1170,-1.0001
1180,-1.0001
1190,-1
1200,-1.0001
1210,-1
1220,-1.0002
1230,-1.0001
1240,-1.0001
1250,-1
1260,-1.0001
1270,-1.0001
1280,-1.0001
1290,-1
1300,-1.0001
1310,-1.0001
1320,-1.0001
1330,-0.99998
1340,-0.99994
1350,-0.99976
1360,-1.0001
1370,-0.99973
1380,-0.99996
1390,-1.0001
1400,-1.0002
1410,-1.0003
1420,-1.0002
1430,-1
1440,-1.0002
1450,-0.99986
1460,-1.0003
1470,-1.0001
1480,-1.0001
1490,-1.0001
1500,-0.99996
1510,-1.0003
1520,-1.0001
1530,-1.0003
1540,-1.0001
1550,-1.0004
1560,-1
1570,-0.99974
1580,-1.0004
1590,-1
1600,-1.0007
1610,-0.99994
1620,-0.99982
1630,-1.0005
1640,-0.99973
1650,-1.0003
1660,-1.0004
1670,-1.0001
1680,-1.0003
1690,-1.0002
1700,-1.0002
1710,-1.0004
1720,-1.0003
1730,-1.0001
1740,-0.99984
1750,-1.0004
1760,-0.99969
1770,-0.99967
1780,-0.99967
1790,-1.0003
1800,-1.0005
1810,-1.0004
1820,-0.99976
1830,-0.99978
1840,-1.0004
1850,-1.0006
1860,-1.0004
1870,-1.0005
1880,-0.99974
1890,-0.99971
1900,-0.99998
1910,-1.0003
1920,-1.0006
1930,-0.99963
1940,-0.99967
1950,-0.99974
1960,-1.0005
1970,-1.0003
1980,-1.0003
1990,-0.99973
2000,-1.0003
2010,-0.99988
2020,-0.99994
2030,-1.0003
2040,-0.99961
2050,-0.99974
2060,-1.0003
2070,-1.0001
2080,-0.99945
2090,-1
2100,-1.0004
2110,-0.99973
2120,-0.99996
2130,-1.0002
2140,-0.99971
2150,-1.0001
2160,-1.0005
2170,-0.99973
2180,-0.99994
2190,-1.0004
2200,-0.99998
2210,-0.99996
2220,-1.0003
2230,-0.99992
2240,-1.0001
2250,-1.0006
2260,-1.0006
2270,-1.0001
2280,-1.0004
2290,-1.0001
2300,-1.0004
2310,-1.0004
2320,-1
2330,-1.0004
2340,-1.0002
2350,-1.0002
2360,-1.0003
2370,-1.0003
2380,-1.0003
2390,-0.9998
2400,-0.99955
2410,-1.0004
2420,-1
2430,-1.0001
2440,-0.99973
2450,-0.9998
2460,-0.99994
2470,-1.0004
2480,-1.0003
2490,-1.0005
2500,-1.0002
2510,-0.99969
2520,-0.99988
2530,-1.0002
2540,-0.99986
2550,-0.99982
2560,-1.0003
2570,-1.0004
2580,-1.0003
2590,-1.0005
2600,-1.0004
2610,-1.0004
2620,-1.0004
2630,-1
2640,-1.0002
2650,-1.0002
2660,-1.0004
2670,-0.99955
2680,-0.9998
2690,-0.99988
2700,-1.0006
2710,-0.9998
2720,-0.99984
2730,-0.99992
2740,-1.0004
2750,-1.0003
2760,-0.99988
2770,-0.99965
2780,-1.0004
2790,-0.99974
2800,-1.0003
2810,-1.0005
2820,-0.99994
2830,-0.99973
2840,-1.0001
2850,-1.0001
2860,-1.0005
2870,-1.0005
2880,-1.0003
2890,-1.0005
2900,-0.99978
2910,-1.0004
2920,-0.9998
2930,-0.99973
2940,-1.0001
2950,-0.99967
2960,-1.0002
2970,-0.99973
2980,-1.0001
2990,-1
3000,-1.0004
3010,-0.9998
3020,-1.0004
3030,-1
3040,-1.0003
3050,-0.99971
3060,-0.99998
3070,-1.0002
3080,-0.99967
3090,-1.0002
3100,-1.0001
3110,-0.99976
3120,-1.0001
3130,-1.0002
3140,-1.0005
3150,-0.99967
3160,-1.0001
3170,-1.0002
3180,-0.99982
3190,-0.99984
3200,-1.0003
3210,-1.0001
3220,-1.0003
3230,-1.0003
3240,-1.0004
3250,-1.0006
3260,-1.0004
3270,-1.0006
3280,-1.0003
3290,-1.0007
3300,-1.0007
3310,-0.99961
3320,-1
3330,-0.99996
3340,-1.0007
3350,-1.0005
3360,-1.0003
3370,-0.99955
3380,-1.0002
3390,-0.99982
3400,-1.0001
3410,-0.99949
3420,-0.99988
3430,-1.0006
3440,-0.99927
3450,-1.0009
3460,-1.0005
3470,-1.0003
3480,-1.0004
3490,-0.99998
3500,-1.0007
3510,-1.0005
3520,-1.0003
3530,-1.0006
3540,-0.99992
3550,-0.99986
3560,-0.99978
3570,-1.0001
3580,-1.0006
3590,-1.0003
3600,-1.0002
3610,-0.99971
3620,-0.99998
3630,-0.99965
3640,-1.0003
3650,-0.99976
3660,-0.99971
3670,-1.0003
3680,-1.0004
3690,-0.99994
3700,-1.0006
3710,-1.0002
3720,-1.0002
3730,-1.0004
3740,-1
3750,-0.9999
3760,-1.0003
3770,-1.0001
3780,-1.0003
3790,-0.99992
3800,-1.0002
3810,-0.99973
3820,-1.0003
3830,-0.99988
3840,-1.0002
3850,-1.0002
3860,-1.0006
3870,-0.99943
3880,-0.99973
3890,-0.99992
3900,-0.99973
3910,-1.0005
3920,-1.0001
3930,-1.0002
3940,-0.99984
3950,-1.0007
3960,-0.99969
3970,-1.0004
3980,-0.99957
3990,-1.0003
4000,-1.0004
4010,-0.99992
4020,-0.99971
4030,-1.0006
4040,-1.0003
4050,-0.99971
4060,-0.99943
4070,-0.99996
4080,-1.0006
4090,-1.0004
4100,-0.99996
4110,-0.9999
4120,-0.99978
4130,-1.0001
4140,-1.0005
4150,-1.0001
4160,-1.0002
4170,-0.99998
4180,-1.0001
4190,-1
4200,-0.99988
4210,-0.99988
4220,-0.99998
4230,-1.0003
4240,-1.0005
4250,-1.0005
4260,-1
4270,-0.99974
4280,-1.0004
4290,-0.9999
4300,-1.0004
4310,-1
4320,-0.99994
4330,-0.99978
4340,-0.99974
4350,-0.99988
4360,-1.0001
4370,-0.99963
4380,-1.0003
4390,-1.0004
4400,-1.0001
4410,-1.0001
4420,-0.99967
4430,-1.0001
4440,-0.99949
4450,-1.0001
4460,-1.0006
4470,-1.0002
4480,-1.0003
4490,-1.0002
4500,-1.0005
4510,-1.0006
4520,-1.0001
4530,-0.99974
4540,-1.0002
4550,-1.0002
4560,-1.0003
4570,-1.0004
4580,-1.0003
4590,-0.99996
4600,-0.99959
4610,-1.0003
4620,-0.99971
4630,-1.0001
4640,-0.99992
4650,-1.0001
4660,-1.0007
4670,-1.0005
4680,-0.99988
4690,-1.0004
4700,-1.0003
4710,-1.0005
4720,-1
4730,-1.0004
4740,-1.0004
4750,-0.99971
4760,-1.0001
4770,-0.99988
4780,-1.0004
4790,-0.99994
4800,-0.99982
4810,-1.0005
4820,-1.0003
4830,-1.0003
4840,-0.99965
4850,-1.0001
4860,-1.0003
4870,-1
4880,-0.99969
4890,-0.99994
4900,-1
4910,-1.0001
4920,-1.0002
4930,-1.0001
4940,-0.99992
4950,-1.0003
4960,-0.99996
4970,-0.99982
4980,-1.0003
4990,-1.0001
5000,-1
5010,-1.0001
5020,-1.0002
5030,-1.0003
5040,-1
5050,-1.0001
5060,-1.0002
5070,-1.0001
5080,-1.0001
5090,-1
5100,-0.99994
5110,-1
5120,-1.0001
5130,-1.0002
5140,-1
5150,-1.0001
5160,-0.99994
5170,-1.0001
5180,-1.0001
5190,-1.0001
5200,-1.0002
5210,-1
5220,-1.0001
5230,-1
5240,-1.0001
5250,-1.0001
5260,-1.0001
5270,-1.0001
5280,-1.0001
5290,-1
5300,-0.99998
5310,-1
5320,-1.0001
5330,-1.0002
5340,-1.0001
5350,-1.0001
5360,-1.0002
5370,-1.0001
5380,-1.0001
5390,-1
5400,-1.0001
5410,-1.0001
5420,-1.0001
5430,-1.0001
5440,-1.0002
5450,-1.0001
5460,-0.99988
5470,-1.0001
5480,-0.99996
5490,-1.0001
5500,-1.0002
5510,-1
5520,-0.99996
5530,-1.0001
5540,-0.99996
5550,-1
5560,-1.0001
5570,-1
5580,-1
5590,-0.99996
5600,-1.0001
5610,-1
5620,-1
5630,-1.0002
5640,-1.0002
5650,-1.0001
5660,-1.0002
5670,-1.0001
5680,-1.0001
5690,-1.0001
5700,-1
5710,-1.0002
5720,-0.99992
5730,-1.0001
5740,-1.0001
5750,-1.0001
5760,-1
5770,-1.0001
5780,-1.0001
5790,-1.0001
5800,-1.0002
5810,-1
5820,-0.99998
5830,-1
5840,-0.99992
5850,-1
5860,-1
5870,-1.0002
5880,-0.9999
5890,-1.0001
5900,-0.99994
5910,-1
5920,-1.0001
5930,-0.99998
5940,-1.0001
5950,-0.99992
5960,-1.0001
5970,-1.0001
5980,-1
5990,-1.0001
6000,-1
6010,-1
6020,-1.0001
6030,-0.9999
6040,-1.0002
6050,-0.99998
6060,-1.0001
6070,-1.0001
6080,-1.0001
6090,-1
6100,-1
6110,-1
6120,-1.0002
6130,-1.0001
6140,-1.0001
6150,-1.0002
6160,-1.0001
6170,-1
6180,-1
6190,-1
6200,-1.0002
6210,-1.0001
6220,-1
6230,-1.0001
6240,-1.0001
6250,-0.99996
6260,-1.0001
6270,-1.0001
6280,-1.0001
6290,-1.0001
6300,-1.0002
6310,-1
6320,-1.0001
6330,-1.0001
6340,-0.9999
6350,-0.9999
6360,-1
6370,-0.99998
6380,-0.99996
6390,-1.0001
6400,-1.0002
6410,-1.0002
6420,-1.0002
6430,-1.0001
6440,-0.99992
6450,-1.0002
6460,-1.0002
6470,-1.0001
6480,-1.0001
6490,-0.99998
6500,-1
6510,-1.0001
6520,-1.0001
6530,-1
6540,-1.0002
6550,-1.0001
6560,-1.0002
6570,-1.0002
6580,-1.0001
6590,-1.0001
6600,-1.0001
6610,-1.0001
6620,-1.0001
6630,-1.0001
6640,-1.0001
6650,-1.0001
6660,-1.0001
6670,-1.0001
6680,-1.0001
6690,-1
6700,-1
6710,-1
6720,-0.99998
6730,-0.99998
6740,-1.0001
6750,-1.0001
6760,-1.0001
6770,-1.0002
6780,-1.0001
6790,-1.0002
6800,-0.99998
6810,-1
6820,-1
6830,-1
6840,-1.0001
6850,-1.0001
6860,-1.0003
6870,-0.99998
6880,-1.0001
6890,-1.0002
6900,-0.99988
6910,-1.0001
6920,-1.0004
6930,-0.99976
6940,-1.0001
6950,-1.0001
6960,-1.0001
6970,-0.9999
6980,-1.0001
6990,-1.0001
7000,-1.0002
7010,-1.0002
7020,-1
7030,-1.0002
7040,-0.99988
7050,-0.99984
7060,-0.99994
7070,-1.0002
7080,-1.0001
7090,-1.0002
7100,-0.99996
7110,-1
7120,-0.99998
7130,-1
7140,-1.0002
7150,-1.0001
7160,-1.0002
7170,-0.99978
7180,-1.0003
7190,-0.99984
7200,-0.9999
7210,-1
7220,-1.0003
7230,-0.99994
7240,-1.0001
7250,-1.0001
7260,-1.0003
7270,-1
7280,-0.9998
7290,-1.0002
7300,-1.0001
7310,-0.99992
7320,-1.0003
7330,-0.99988
7340,-0.99996
7350,-1.0001
7360,-1.0004
7370,-1.0001
7380,-1.0001
7390,-1.0003
7400,-1
7410,-1
7420,-1.0002
7430,-1.0001
7440,-1.0002
7450,-1.0002
7460,-0.99996
7470,-1.0002
7480,-1
7490,-1.0002
7500,-1.0002
7510,-0.99998
7520,-1.0002
7530,-1.0002
7540,-1.0002
7550,-1
7560,-1.0001
7570,-0.99992
7580,-1
7590,-0.99998
7600,-1.0003
7610,-1
7620,-1.0001
7630,-1.0002
7640,-1.0001
7650,-1.0003
7660,-1.0002
7670,-0.99998
7680,-0.99986
7690,-1.0001
7700,-1.0001
7710,-1.0002
7720,-0.99967
7730,-0.99963
7740,-1.0005
7750,-1.0006
7760,-1.0002
7770,-1.0003
7780,-0.99976
7790,-1.0003
7800,-0.99971
7810,-1.0001
7820,-1.0005
7830,-0.9999
7840,-1.0006
7850,-1.0002
7860,-1.0004
7870,-1.0005
7880,-1.0004
7890,-0.99996
7900,-0.99974
7910,-1.0001
7920,-1.0004
7930,-0.99973
7940,-1.0003
7950,-0.9998
7960,-0.99949
7970,-0.99969
7980,-1.0004
7990,-0.99994
8000,-1.0001
8010,-1
8020,-0.99982
8030,-0.99969
8040,-1.0001
8050,-1.0003
8060,-0.99986
8070,-1.0004
8080,-1.0004
8090,-1.0002
8100,-1.0005
8110,-1.0005
8120,-1.0006
8130,-1.0002
8140,-1.0002
8150,-0.99971
8160,-0.99998
8170,-0.99969
8180,-0.99988
8190,-1
8200,-1.0004
8210,-1
8220,-1.0006
8230,-1.0004
8240,-1.0005
8250,-1.0006
8260,-0.9998
8270,-0.99953
8280,-0.99988
8290,-1.0001
8300,-0.99961
8310,-1.0002
8320,-1
8330,-0.99984
8340,-1
8350,-1.0004
8360,-0.99982
8370,-1.0001
8380,-1.0001
8390,-1.0006
8400,-0.9999
8410,-0.99969
8420,-0.99974
8430,-0.99973
8440,-1.0002
8450,-0.99982
8460,-0.9999
8470,-0.99963
8480,-1
8490,-1.0003
8500,-0.99955
8510,-1.0006
8520,-1.0001
8530,-1.0006
8540,-0.99959
8550,-1.0004
8560,-0.99984
8570,-1.0004
8580,-1.0004
8590,-1.0006
8600,-0.99951
8610,-1.0005
8620,-0.99976
8630,-1.0004
8640,-1.0004
8650,-1.0006
8660,-0.99965
8670,-1.0004
8680,-0.99992
8690,-1
8700,-0.9998
8710,-0.99978
8720,-1.0003
8730,-1.0005
8740,-0.99982
8750,-0.99963
8760,-0.99996
8770,-0.99973
8780,-1.0001
8790,-1.0001
8800,-0.99998
8810,-0.99984
8820,-0.99988
8830,-1.0002
8840,-1.0004
8850,-0.99978
8860,-1.0003
8870,-0.99959
8880,-1.0005
8890,-1.0006
8900,-1.0001
8910,-0.99947
8920,-1.0002
8930,-1.0005
8940,-1.0005
8950,-1.0003
8960,-1.0004
8970,-0.99947
8980,-1.0002
8990,-1.0002
9000,-1.0002
9010,-1
9020,-1.0002
9030,-1.0005
9040,-1.0003
9050,-1.0001
9060,-0.99984
9070,-0.99984
9080,-0.9998
9090,-1.0001
9100,-1.0003
9110,-0.99994
9120,-1.0004
9130,-0.99959
9140,-1
9150,-0.99982
9160,-0.99984
9170,-0.99996
9180,-0.99992
9190,-1.0002
9200,-1.0001
9210,-0.99996
9220,-1.0004
9230,-1.0001
9240,-1.0001
9250,-0.99986
9260,-0.99984
9270,-1
9280,-1.0001
9290,-1.0001
9300,-1
9310,-0.9998
9320,-1.0003
9330,-1.0004
9340,-0.99974
9350,-1.0001
9360,-1
9370,-1.0001
9380,-1
9390,-1.0001
9400,-0.99988
9410,-1.0001
9420,-1
9430,-1
9440,-0.9999
9450,-1.0001
9460,-1.0001
9470,-1.0001
9480,-1
9490,-1
9500,-1.0001
9510,-1.0001
9520,-1.0001
9530,-1.0001
9540,-1.0001
9550,-0.99994
9560,-1.0001
9570,-1
9580,-1.0001
9590,-1.0001
9600,-1.0001
9610,-1.0001
9620,-1.0001
9630,-1.0001
9640,-1
9650,-1
9660,-1.0001
9670,-1.0001
9680,-0.99988
9690,-1.0001
9700,-0.99998
9710,-1.0001
9720,-1
9730,-1.0002
9740,-1.0001
9750,-1.0001
9760,-1
9770,-0.99998
9780,-1.0001
9790,-1.0001
9800,-1
9810,-0.99994
9820,-1.0002
9830,-0.99998
9840,-1
9850,-1.0002
9860,-1.0002
9870,-1.0002
9880,-1.0001
9890,-1
9900,-1.0002
9910,-0.99992
9920,-0.99996
9930,-1.0002
9940,-1.0002
9950,-1.0001
9960,-1.0001
9970,-1
9980,-1.0001
9990,-1
10000,-1
10010,-1.0001
10020,-1.0001
10030,-1.0001
10040,-1.0001
10050,-1.0001
10060,-0.99996
10070,-1.0001
10080,-1.0001
10090,-0.99992
10100,-1
10110,-1.0001
10120,-1.0002
10130,-1.0001
10140,-1.0001
10150,-1
10160,-1
10170,-1.0001
10180,-1
10190,-1.0001
10200,-1.0002
10210,-1.0001
10220,-1.0001
10230,-1.0002
10240,-1
10250,-1.0002
10260,-1.0001
10270,-0.99998
10280,-1.0001
10290,-0.99996
10300,-1.0001
10310,-1.0001
10320,-1
10330,-1
10340,-0.99994
10350,-1.0001
10360,-1.0001
10370,-1.0001
10380,-0.99998
10390,-1.0002
10400,-1
10410,-1.0002
10420,-1.0001
10430,-0.99996
10440,-1
10450,-1.0001
10460,-1.0001
10470,-0.99994
10480,-1
10490,-1
10500,-1.0001
10510,-1
10520,-1.0001
10530,-0.99992
10540,-0.9999
10550,-1
10560,-1
10570,-1
10580,-1
10590,-1.0001
10600,-1.0001
10610,-1
10620,-1.0001
10630,-1.0002
10640,-1.0001
10650,-1.0001
10660,-1.0001
10670,-1.0001
10680,-1.0001
10690,-0.99998
10700,-1.0001
10710,-1.0002
10720,-1.0002
10730,-1.0001
10740,-1.0001
10750,-1
10760,-0.99998
10770,-1.0002
10780,-1
10790,-1.0001
10800,-0.99998
10810,-1.0001
10820,-1.0001
10830,-1.0001
10840,-0.99996
10850,-1.0001
10860,-1.0002
10870,-0.99998
10880,-1.0002
10890,-1
10900,-1.0002
10910,-1
10920,-1.0001
10930,-1
10940,-1
10950,-1.0001
10960,-1
10970,-1.0002
10980,-1.0001
10990,-1.0001
11000,-1.0001
11010,-1
11020,-1
11030,-0.99994
11040,-1.0001
11050,-1.0001
11060,-0.99992
11070,-1.0001
11080,-1.0001
11090,-1.0001
11100,-0.99996
11110,-0.99994
11120,-1.0001
11130,-1.0001
11140,-1
11150,-1
11160,-1.0001
11170,-1
11180,-1.0001
11190,-1.0001
11200,-1
11210,-1.0001
11220,-1.0001
11230,-1.0002
11240,-1
11250,-1.0002
11260,-1.0001
11270,-0.99996
11280,-1.0001
11290,-1
11300,-1.0001
11310,-1.0001
11320,-1
11330,-0.99996
11340,-1.0001
11350,-1.0001
11360,-0.99994
11370,-1.0001
11380,-1
11390,-1.0001
11400,-1.0001
11410,-1
11420,-0.9999
11430,-1.0001
11440,-1.0001
11450,-1.0001
11460,-1.0002
11470,-1.0001
11480,-1.0001
11490,-1.0001
11500,-1.0001
11510,-1.0001
11520,-1
11530,-1.0002
11540,-1.0001
11550,-1.0002
11560,-1
11570,-1.0001
11580,-1.0001
11590,-1.0001
11600,-1.0001
11610,-1.0002
11620,-1
11630,-1.0001
11640,-1.0002
11650,-1.0001
11660,-1.0002
11670,-1
11680,-1
11690,-0.99994
11700,-1.0001
11710,-1.0001
11720,-1
11730,-1.0001
11740,-1.0001
11750,-1.0001
11760,-1
11770,-1.0001
11780,-1.0001
11790,-1.0002
11800,-1
11810,-1
11820,-1
11830,-1.0001
11840,-1.0001
11850,-1.0002
11860,-0.99994
11870,-1.0002
11880,-1.0001
11890,-1.0001
11900,-1.0001
11910,-1.0001
11920,-1
11930,-1
11940,-1.0001
11950,-1.0001
11960,-1.0001
11970,-1
11980,-1.0002
11990,-1
12000,-1
12010,-1.0001
12020,-1.0001
12030,-1.0001
12040,-1
12050,-1.0002
12060,-1
12070,-1.0001
12080,-1.0001
12090,-1.0001
12100,-1
12110,-1.0002
12120,-1
12130,-0.99998
12140,-1.0002
12150,-1.0001
12160,-0.99992
12170,-0.99984
12180,-0.99976
12190,-0.99998
12200,-0.99992
12210,-1.0003
12220,-1
12230,-0.99986
12240,-1.0002
12250,-1.0002
12260,-1
12270,-0.99984
12280,-0.99992
12290,-0.9999
12300,-1.0001
12310,-1
12320,-0.99996
12330,-1.0002
12340,-1.0001
12350,-1.0001
12360,-1
12370,-0.9999
12380,-1.0003
12390,-0.99984
12400,-1.0002
12410,-1.0001
12420,-1.0003
12430,-1.0003
12440,-1.0005
12450,-0.99973
12460,-1.0004
12470,-0.9998
12480,-0.9999
12490,-1.0004
12500,-0.99986
12510,-0.99965
12520,-0.99974
12530,-0.99974
12540,-0.9998
12550,-1
12560,-0.99992
12570,-0.99982
12580,-0.99978
12590,-1.0004
12600,-0.99988
12610,-0.99994
12620,-0.99984
12630,-1.0004
12640,-0.99988
12650,-1.0001
12660,-1.0003
12670,-0.99994
12680,-0.99994
12690,-0.99992
12700,-0.99984
12710,-0.99994
12720,-1.0001
12730,-1
12740,-1.0004
12750,-1.0001
12760,-1.0003
12770,-1.0001
12780,-1.0005
12790,-0.9998
12800,-0.99988
12810,-1.0004
12820,-1.0006
12830,-0.99982
12840,-1.0002
12850,-0.99947
12860,-0.99978
12870,-1.0004
12880,-1.0003
12890,-1.0003
12900,-1.0002
12910,-0.99986
12920,-0.9998
12930,-0.99978
12940,-0.99996
12950,-0.99974
12960,-0.99973
12970,-1.0004
12980,-0.9999
12990,-1.0003
13000,-1.0003
13010,-1.0003
13020,-1.0002
13030,-0.99976
13040,-0.99986
13050,-0.99969
13060,-1.0003
13070,-1.0005
13080,-0.99965
13090,-1.0004
13100,-0.99978
13110,-1.0002
13120,-1.0004
13130,-1.0004
13140,-1.0004
13150,-1.0004
13160,-1.0004
13170,-0.99988
13180,-1.0005
13190,-0.9999
13200,-1.0001
13210,-1.0001
13220,-1
13230,-1.0003
13240,-1
13250,-1.0004
13260,-0.99982
13270,-1
13280,-1.0005
13290,-1
13300,-0.9998
13310,-1.0004
13320,-0.9999
13330,-0.99996
13340,-1.0003
13350,-0.99965
13360,-0.99967
13370,-1.0002
13380,-1.0003
13390,-1.0003
13400,-1.0005
13410,-0.99976
13420,-1.0001
13430,-0.99994
13440,-1.0005
13450,-1
13460,-0.99973
13470,-1.0003
13480,-1.0003
13490,-0.99982
13500,-1.0003
13510,-1.0001
13520,-1.0004
13530,-1.0004
13540,-0.99963
13550,-0.9999
13560,-0.99978
13570,-1.0001
13580,-0.99988
13590,-0.99988
13600,-1
13610,-0.9998
13620,-1.0004
13630,-1.0002
13640,-1.0003
13650,-0.99988
13660,-1.0005
13670,-1.0005
13680,-0.99992
13690,-1.0004
13700,-0.99984
13710,-0.99984
13720,-1.0003
13730,-1.0006
13740,-1.0007
13750,-1.0001
13760,-1.0004
13770,-1.0002
13780,-1.0001
13790,-1.0002
13800,-1.0001
13810,-1.0001
13820,-1.0001
13830,-0.99996
13840,-1.0002
13850,-0.9999
13860,-0.99992
13870,-1
13880,-0.99996
13890,-0.9999
13900,-1.0001
13910,-1.0001
13920,-0.99998
13930,-1.0003
13940,-1.0002
13950,-1.0003
13960,-1.0001
13970,-1.0002
13980,-1.0001
13990,-1.0003
14000,-1.0001
14010,-0.9999
14020,-1.0001
14030,-1.0002
14040,-1
14050,-0.99998
14060,-1.0003
14070,-1.0002
14080,-0.99992
14090,-1.0002
14100,-0.99994
14110,-1.0002
14120,-1
14130,-1
14140,-0.99994
14150,-0.99996
14160,-1
14170,-1.0001
14180,-1.0002
14190,-1.0001
14200,-1
14210,-1.0002
14220,-1.0001
14230,-1.0002
14240,-1.0002
14250,-0.99996
14260,-0.99974
14270,-1.0002
14280,-1.0001
14290,-1
14300,-1.0002
14310,-1
14320,-1.0002
14330,-1
14340,-0.99994
14350,-1.0002
14360,-1
14370,-1
14380,-0.99994
14390,-0.99994
14400,-0.99992
14410,-1.0002
14420,-1
14430,-1.0001
14440,-1.0002
14450,-0.99998
14460,-1.0001
14470,-1.0001
14480,-1
14490,-1.0002
14500,-0.99998
14510,-1.0002
14520,-1.0001
14530,-1.0001
14540,-1.0002
14550,-1.0001
14560,-1.0002
14570,-0.99994
14580,-1.0002
14590,-1.0002
14600,-0.9998
14610,-1.0001
14620,-1.0001
14630,-0.99992
14640,-1.0002
14650,-1
14660,-1.0002
14670,-1.0002
14680,-1.0002
14690,-1.0002
14700,-1.0002
14710,-1.0002
14720,-0.99986
14730,-1.0002
14740,-0.99994
14750,-1
14760,-1.0001
14770,-0.99992
14780,-1
14790,-1
14800,-1.0001
14810,-1.0003
14820,-1
14830,-1
14840,-1.0002
14850,-1.0001
14860,-1.0002
14870,-1.0001
14880,-1.0002
14890,-1.0001
14900,-1.0001
14910,-0.99998
14920,-1.0002
14930,-1.0002
14940,-1
14950,-1.0002
14960,-1.0002
14970,-1.0001
14980,-0.99988
14990,-1.0002
15000,-0.99994
15010,-1.0003
15020,-0.99982
15030,-0.99994
15040,-1.0002
15050,-1.0001
15060,-1
15070,-1.0002
15080,-1.0002
15090,-1.0001
15100,-1
15110,-1.0002
15120,-0.99992
15130,-0.99996
15140,-0.99996
15150,-0.99992
15160,-0.99996
15170,-1.0002
15180,-1
15190,-1.0001
15200,-1.0002
15210,-0.99986
15220,-1.0001
15230,-1.0001
15240,-0.99996
15250,-1
15260,-1.0001
15270,-1.0003
15280,-0.99992
15290,-0.9998
15300,-0.99998
15310,-1.0002
15320,-1.0001
15330,-1.0001
15340,-0.99988
15350,-1.0002
15360,-1.0001
15370,-1.0001
15380,-1
15390,-1.0003
15400,-0.99986
15410,-1
15420,-1
15430,-1.0001
15440,-0.99988
15450,-1.0001
15460,-0.99982
15470,-1
15480,-1.0003
15490,-1.0002
15500,-1.0002
15510,-0.99994
15520,-0.99996
15530,-1
15540,-0.99994
15550,-1.0001
15560,-1.0001
15570,-1.0001
15580,-1.0003
15590,-1.0002
15600,-1
15610,-1.0003
15620,-1.0001
15630,-0.99998
15640,-1
15650,-1.0001
15660,-1.0003
15670,-1.0001
15680,-0.9999
15690,-1.0002
15700,-1.0002
15710,-0.99998
15720,-0.9999
15730,-0.99996
15740,-1.0002
15750,-1
15760,-0.99996
15770,-0.9999
15780,-1
15790,-1.0001
15800,-1.0002
15810,-0.99994
15820,-1.0001
15830,-1.0002
15840,-1.0001
15850,-1
15860,-1.0001
15870,-1
15880,-1.0001
15890,-1.0001
15900,-1.0002
15910,-1
15920,-1.0001
15930,-1.0001
15940,-0.99998
15950,-1.0002
15960,-1.0001
15970,-0.99994
15980,-0.99992
15990,-1.0001
16000,-1.0001
16010,-1.0001
16020,-0.99996
16030,-1.0002
16040,-1
16050,-1.0001
16060,-1.0001
16070,-1.0001
16080,-0.99998
16090,-1.0002
16100,-1.0001
16110,-1
16120,-1
16130,-1
16140,-1
16150,-1.0002
16160,-1.0001
16170,-1.0001
16180,-1.0001
16190,-1.0001
16200,-1.0001
16210,-1
16220,-1.0001
16230,-1
16240,-0.99998
16250,-1.0001
16260,-1.0001
16270,-1.0001
16280,-1
16290,-0.99996
16300,-1.0001
16310,-1.0001
16320,-1
16330,-1
16340,-1.0002
16350,-0.9999
16360,-1
16370,-1.0001
16380,-1.0002
16390,-1.0001
16400,-1.0001
16410,-1.0001
16420,-1.0001
16430,-1.0002
16440,-1.0001
16450,-1.0001
16460,-1.0001
16470,-1.0001
16480,-0.99998
16490,-1
16500,-1.0001
16510,-1.0001
16520,-1
16530,-1.0001
16540,-1.0002
16550,-1.0002
16560,-1.0001
16570,-1.0001
16580,-1.0003
16590,-1
16600,-1.0002
16610,-1.0003
16620,-0.99988
16630,-1.0002
16640,-1.0001
16650,-1.0002
16660,-1.0002
16670,-1.0003
16680,-1.0002
16690,-1
16700,-1.0003
16710,-0.99992
16720,-0.99996
16730,-1.0001
16740,-0.99994
16750,-1.0003
16760,-1.0001
16770,-0.9999
16780,-0.99978
16790,-1.0001
16800,-1.0003
16810,-1.0005
16820,-0.99976
16830,-1.0001
16840,-1
16850,-0.99982
16860,-1.0004
16870,-1.0001
16880,-1
16890,-0.99992
16900,-0.99998
16910,-0.99994
16920,-0.99986
16930,-1.0002
16940,-1.0002
16950,-1.0002
16960,-0.99998
16970,-1
16980,-1.0001
16990,-1.0003
17000,-0.99992
17010,-1.0003
17020,-1.0002
17030,-0.99996
17040,-1.0002
17050,-0.99998
17060,-1.0004
17070,-0.99998
17080,-0.99978
17090,-1.0001
17100,-1
17110,-1
17120,-1.0002
17130,-1.0002
17140,-0.99996
17150,-1
17160,-0.99988
17170,-1
17180,-1.0001
17190,-1.0001
17200,-1.0003
17210,-1.0003
17220,-1
17230,-1
17240,-1.0003
17250,-1.0003
17260,-1.0001
17270,-1.0002
17280,-0.99988
17290,-1.0001
17300,-0.99974
17310,-1.0002
17320,-1.0001
17330,-1.0002
17340,-0.9544
17350,-0.88981
17360,-0.84196
17370,-0.80298
17380,-0.76695
17390,-0.73918
17400,-0.71201
17410,-0.68541
17420,-0.66074
17430,-0.64075
17440,-0.61974
17450,-0.59894
17460,-0.57939
17470,-0.56365
17480,-0.54748
17490,-0.53067
17500,-0.51455
17510,-0.50289
17520,-0.48805
17530,-0.47596
17540,-0.46317
17550,-0.45158
17560,-0.4386
17570,-0.42569
17580,-0.41705
17590,-0.40477
17600,-0.39447
17610,-0.3867
17620,-0.37551
17630,-0.36682
17640,-0.36117
17650,-0.34641
17660,-0.3447
17670,-0.3354
17680,-0.32598
17690,-0.32127
17700,-0.31428
17710,-0.30868
17720,-0.29832
17730,-0.29225
17740,-0.28738
17750,-0.28331
17760,-0.27491
17770,-0.27016
17780,-0.26542
17790,-0.25487
17800,-0.25448
17810,-0.24827
17820,-0.24532
17830,-0.23663
17840,-0.23598
17850,-0.23249
17860,-0.22134
17870,-0.22118
17880,-0.21502
17890,-0.21244
17900,-0.2085
17910,-0.20361
17920,-0.19983
17930,-0.19918
17940,-0.19482
17950,-0.19139
17960,-0.18603
17970,-0.18012
17980,-0.18213
17990,-0.17648
18000,-0.17207
18010,-0.1709
18020,-0.16679
18030,-0.16422
18040,-0.16458
18050,-0.15953
18060,-0.15863
18070,-0.15236
18080,-0.15382
18090,-0.14988
18100,-0.14775
18110,-0.14488
18120,-0.14377
18130,-0.14166
18140,-0.13816
18150,-0.13633
18160,-0.13487
18170,-0.13262
18180,-0.12984
18190,-0.1276
18200,-0.12645
18210,-0.1275
18220,-0.12364
18230,-0.12113
18240,-0.12015
18250,-0.11838
18260,-0.11552
18270,-0.11552
18280,-0.11386
18290,-0.11142
18300,-0.10884
18310,-0.1073
18320,-0.10839
18330,-0.10697
18340,-0.10224
18350,-0.099639
18360,-0.09958
18370,0.99972
18380,0.9997
18390,0.99974
18400,0.99974
18410,0.99964
18420,0.9998
18430,0.99964
18440,0.99968
18450,0.99974
18460,0.99972
18470,0.99962
18480,0.9997
18490,0.99964
18500,0.99989
18510,0.99974
18520,0.99966
18530,0.99972
18540,0.9998
18550,0.99968
18560,0.99976
18570,0.99976
18580,0.9997
18590,0.99966
18600,0.9997
18610,0.99968
18620,0.99976
18630,0.99974
18640,0.99966
18650,0.99964
18660,0.99978
18670,0.99978
18680,0.9996
18690,0.9998
18700,0.99974
18710,0.99972
18720,0.9997
18730,0.99968
18740,0.99976
18750,0.99978
18760,0.9997
18770,0.99972
18780,0.99962
18790,0.99962
18800,0.99958
18810,0.99978
18820,0.9997
18830,0.9997
18840,0.99964
18850,0.99972
18860,0.99972
18870,0.9998
18880,0.99976
18890,0.99958
18900,0.99962
18910,0.9997
18920,0.99976
18930,0.9997
18940,0.99958
18950,0.99958
18960,0.9997
18970,0.99991
18980,0.99978
18990,0.99982
19000,0.9997
19010,0.99966
19020,0.9996
19030,0.9998
19040,0.9998
19050,0.99974
19060,0.9997
19070,0.9997
19080,0.99974
19090,0.99972
19100,0.99972
19110,0.99972
19120,0.99978
19130,0.99966
19140,0.99964
19150,0.99972
19160,0.99972
19170,0.99956
19180,0.99974
19190,0.9997
19200,0.99966
19210,0.99958
19220,0.99968
19230,0.9998
19240,0.99966
19250,0.99972
19260,0.99966
19270,0.99972
19280,0.99966
19290,0.99976
19300,0.99972
19310,0.99978
19320,0.99972
19330,0.99984
19340,0.99986
19350,0.99962
19360,0.99976
19370,0.99966
19380,0.9997
19390,0.99972
19400,0.9998
19410,0.99972
19420,0.99972
19430,0.99976
19440,0.99976
19450,0.99986
19460,0.99978
19470,0.99978
19480,0.99982
19490,0.9998
19500,0.99954
19510,0.99976
19520,0.99972
19530,0.99976
19540,0.99972
19550,0.99972
19560,0.9997
19570,0.99972
19580,0.99972
19590,0.9995
19600,0.99964
19610,0.99976
19620,0.99972
19630,0.99978
19640,0.99972
19650,0.99984
19660,0.9997
19670,0.99968
19680,0.99968
19690,0.9997
19700,0.99978
19710,0.9997
19720,0.99974
19730,0.99968
19740,0.99954
19750,0.99976
19760,0.99968
19770,0.99976
19780,0.99968
19790,0.9997
19800,0.99978
19810,0.99987
19820,0.99976
19830,0.99968
19840,0.99984
19850,0.99968
19860,0.99976
19870,0.9998
19880,0.99982
19890,0.99978
19900,0.99976
19910,0.99984
19920,0.9998
19930,0.99974
19940,0.99978
19950,0.99978
19960,0.99972
19970,0.99968
19980,0.99978
19990,0.99972
20000,0.99982
20010,0.99978
20020,0.99986
20030,0.99978
20040,0.99976
20050,0.99986
20060,0.9998
20070,0.99974
20080,0.99972
20090,0.99976
20100,0.9997
20110,0.99978
20120,0.9998
20130,0.99976
20140,0.99987
20150,0.9997
20160,0.99978
20170,0.9998
20180,0.99978
20190,0.99972
20200,0.99968
20210,0.99964
20220,0.99972
20230,0.99968
20240,0.99974
20250,0.9997
20260,0.99962
20270,0.99974
20280,0.99978
20290,0.99968
20300,0.9998
20310,0.9997
20320,0.9997
20330,0.99974
20340,0.99976
20350,0.99958
20360,0.99972
20370,0.99966
20380,0.99974
20390,0.99972
20400,0.99978
20410,0.99974
20420,0.99972
20430,0.9997
20440,0.99984
20450,0.99978
20460,0.99974
20470,0.99976
20480,0.9997
20490,0.99976
20500,0.99972
20510,0.9998
20520,0.99966
20530,0.99968
20540,0.9996
20550,0.9997
20560,0.99966
20570,0.99968
20580,0.9998
20590,0.99978
20600,0.99978
20610,0.99972
20620,0.99982
20630,0.99972
20640,0.9997
20650,0.99976
20660,0.9998
20670,0.99978
20680,0.99987
20690,0.99974
20700,0.99972
20710,0.9997
20720,0.99984
20730,0.99978
20740,0.9998
20750,0.99972
20760,0.99978
20770,0.9996
20780,0.99974
20790,0.99964
20800,0.99972
20810,0.99984
20820,0.99976
20830,0.99966
20840,0.99991
20850,0.99974
20860,0.99978
20870,0.9998
20880,0.99974
20890,0.99976
20900,0.99976
20910,0.99984
20920,0.99978
20930,0.99978
20940,0.99987
20950,0.99966
20960,0.99987
20970,0.99974
20980,0.99978
20990,0.99984
21000,0.9997
21010,0.99976
21020,0.99984
21030,0.99968
21040,0.99987
21050,0.99972
21060,0.99986
21070,0.99976
21080,0.99984
21090,0.99982
21100,0.99986
21110,0.99993
21120,0.99984
21130,0.9997
21140,0.99987
21150,0.99987
21160,0.99966
21170,0.99984
21180,0.9997
21190,0.99966
21200,0.99962
21210,0.99966
21220,0.9998
21230,0.99986
21240,0.99984
21250,0.99972
21260,0.99978
21270,0.99976
21280,0.9998
21290,0.99986
21300,0.99962
21310,0.99984
21320,0.99982
21330,0.99984
21340,0.9998
21350,0.9998
21360,0.99976
21370,0.99972
21380,0.99987
21390,0.99976
21400,0.99982
21410,0.99991
21420,0.9996
21430,0.99984
21440,0.9997
21450,0.99976
21460,0.9997
21470,0.99984
21480,0.99972
21490,0.9997
21500,0.99962
21510,0.99948
21520,0.99976
21530,0.9998
21540,0.99993
21550,0.99972
21560,0.99989
21570,0.9998
21580,0.99984
21590,0.99989
21600,0.99987
21610,0.9997
21620,0.9997
21630,0.99976
21640,0.99997
21650,0.99968
21660,0.9997
21670,0.99976
21680,0.9998
21690,0.9998
21700,0.99976
21710,0.99968
21720,0.99974
21730,0.99976
21740,0.9998
21750,0.99968
21760,0.99984
21770,0.99974
21780,0.9997
21790,0.99974
21800,0.99987
21810,0.9997
21820,0.99978
21830,0.99964
21840,0.99972
21850,0.99982
21860,0.99987
21870,0.99984
21880,0.99974
21890,0.99976
21900,0.99976
21910,0.99976
21920,0.99986
21930,0.99987
21940,0.99974
21950,0.99986
21960,0.99974
21970,0.99976
21980,0.9998
21990,0.99972
22000,0.99952
22010,0.99966
22020,0.99978
22030,0.99987
22040,0.9998
22050,0.99984
22060,0.99982
22070,0.99972
22080,0.99974
22090,0.9998
22100,0.99966
22110,0.99978
22120,0.99993
22130,0.99972
22140,0.9997
22150,0.99964
22160,0.99974
22170,0.9998
22180,0.99984
22190,0.99974
22200,0.99989
22210,0.9997
22220,0.99954
22230,0.99968
22240,0.9998
22250,0.99978
22260,0.9997
22270,0.99984
22280,0.9998
22290,0.99964
22300,0.99972
22310,0.99984
22320,0.9997
22330,0.99968
22340,0.99986
22350,0.9998
22360,0.9997
22370,0.99972
22380,0.9997
22390,0.9998
22400,0.99978
22410,0.99978
22420,0.99986
22430,0.9998
22440,0.99989
22450,0.99974
22460,0.99974
22470,0.99984
22480,0.99982
22490,0.99984
22500,0.99976
22510,0.9997
22520,0.99986
22530,0.99986
22540,0.99976
22550,0.99974
22560,0.99972
22570,0.99972
22580,0.99968
22590,0.99984
22600,0.9998
22610,0.99984
22620,0.99976
22630,0.99978
22640,0.9997
22650,0.99966
22660,0.99968
22670,0.99974
22680,0.99958
22690,0.99974
22700,0.99978
22710,0.99972
22720,0.99972
22730,0.99987
22740,0.99962
22750,0.99976
22760,0.99966
22770,0.9997
22780,0.99966
22790,0.99978
22800,0.9996
22810,0.9996
22820,0.99984
22830,0.99974
22840,0.99966
22850,0.9998
22860,0.9996
22870,0.99964
22880,0.99968
22890,0.99968
22900,0.99976
22910,0.99972
22920,0.9997
22930,0.99976
22940,0.99976
22950,0.99974
22960,0.99976
22970,0.9997
22980,0.99976
22990,0.9998
23000,0.99974
23010,0.9997
23020,0.99958
23030,0.99976
23040,0.99978
23050,0.99966
23060,0.9996
23070,0.99972
23080,0.9998
23090,0.99966
23100,0.9997
23110,0.99964
23120,0.99976
23130,0.99962
23140,0.9996
23150,0.9997
23160,0.99966
23170,0.99964
23180,0.99984
23190,0.99962
23200,0.99968
23210,0.99974
23220,0.99972
23230,0.99972
23240,0.9997
23250,0.9997
23260,0.99954
23270,0.9996
23280,0.9998
23290,0.99974
23300,0.99974
23310,0.99966
23320,0.9997
23330,0.9997
23340,0.99966
23350,0.99972
23360,0.99968
23370,0.99978
23380,0.99974
23390,0.99972
23400,0.9997
23410,0.99968
23420,0.99976
23430,0.99976
23440,0.99972
23450,0.99972
23460,0.9998
23470,0.99974
23480,0.9998
23490,0.9998
23500,0.99964
23510,0.9997
23520,0.99968
23530,0.99976
23540,0.9998
23550,0.99968
23560,0.99964
23570,0.99968
23580,0.99976
23590,0.99964
23600,0.99984
23610,0.99978
23620,0.9997
23630,0.99976
23640,0.99984
23650,0.9997
23660,0.99978
23670,0.99974
23680,0.99972
23690,0.99974
23700,0.99978
23710,0.9997
23720,0.99982
23730,0.99978
23740,0.99966
23750,0.99968
23760,0.9997
23770,0.99974
23780,0.9997
23790,0.99978
23800,0.99974
23810,0.9997
23820,0.99978
23830,0.99962
23840,0.99964
23850,0.99984
23860,0.99974
23870,0.99966
23880,0.99968
23890,0.99978
23900,0.9997
23910,0.9997
23920,0.99974
23930,0.99974
23940,0.9997
23950,0.99978
23960,0.99972
23970,0.99968
23980,0.99976
23990,0.99972
24000,0.99982
24010,0.99976
24020,0.99968
24030,0.99972
24040,0.99966
24050,0.99982
24060,0.99978
24070,0.99974
24080,0.99976
24090,0.99966
24100,0.99993
24110,0.99978
24120,0.9998
24130,0.99968
24140,0.99986
24150,0.99966
24160,0.99968
24170,0.99976
24180,0.99966
24190,0.99964
24200,0.99974
24210,0.99982
24220,0.99972
24230,0.99982
24240,0.99968
24250,0.99974
24260,0.99976
24270,0.99978
24280,0.9997
24290,0.99968
24300,0.99962
24310,0.9998
24320,0.99966
24330,0.9997
24340,0.9997
24350,0.99966
24360,0.99972
24370,0.99972
24380,0.99987
24390,0.99982
24400,0.99978
24410,0.99968
24420,0.99968
24430,0.99976
24440,0.99982
24450,0.99974
24460,0.99974
24470,0.99962
24480,0.9997
24490,0.99976
24500,0.99987
24510,0.99978
24520,0.99974
24530,0.99984
24540,0.99984
24550,0.99976
24560,0.99976
24570,0.99978
24580,0.99968
24590,0.99989
24600,0.99976
24610,0.99974
24620,0.99982
24630,0.99974
24640,0.99982
24650,0.9998
24660,0.9998
24670,0.9997
24680,0.99974
24690,0.99978
24700,0.99984
24710,0.99978
24720,0.99974
24730,0.9998
24740,0.9998
24750,0.99984
24760,0.99978
24770,0.99968
24780,0.99972
24790,0.99984
24800,0.9998
24810,0.99978
24820,0.99982
24830,0.99978
24840,0.99978
24850,0.9998
24860,0.99978
24870,0.99972
24880,0.99976
24890,0.9998
24900,0.9997
24910,0.99976
24920,0.99978
24930,0.99974
24940,0.9998
24950,0.99978
24960,0.99974
24970,0.99974
24980,0.9997
24990,0.99982
25000,0.9997
25010,0.99972
25020,0.99984
25030,0.99976
25040,0.99989
25050,0.99976
25060,0.99974
25070,0.99982
25080,0.99978
25090,0.99966
25100,0.99976
25110,0.99966
25120,0.99978
25130,0.99972
25140,0.99964
25150,0.9997
25160,0.9997
25170,0.99986
25180,0.99986
25190,0.99986
25200,0.99978
25210,0.99976
25220,0.99976
25230,0.99982
25240,0.99978
25250,0.99972
25260,0.99982
25270,0.99982
25280,0.99987
25290,0.99987
25300,0.99987
25310,0.99978
25320,0.99982
25330,0.99978
25340,0.99966
25350,0.99974
25360,0.99976
25370,0.99972
25380,0.9997
25390,0.9998
25400,0.99986
25410,0.9998
25420,0.99974
25430,0.9998
25440,0.99984
25450,0.99974
25460,0.99976
25470,0.99989
25480,0.99974
25490,0.99972
25500,0.99993
25510,0.99982
25520,0.99968
25530,0.99991
25540,0.99982
25550,0.9998
25560,0.9998
25570,0.99968
25580,0.99976
25590,0.99987
25600,0.99974
25610,0.99972
25620,0.99987
25630,0.99984
25640,0.99982
25650,0.9998
25660,0.99995
25670,0.99974
25680,0.99962
25690,0.99984
25700,0.99987
25710,0.9998
25720,0.99986
25730,0.99984
25740,0.99991
25750,0.99982
25760,0.99987
25770,0.99987
25780,0.99978
25790,0.99982
25800,0.9998
25810,0.99974
25820,0.99986
25830,0.99987
25840,0.99966
25850,0.99974
25860,0.9997
25870,0.99978
25880,0.9997
25890,0.99982
25900,0.99976
25910,0.99974
25920,0.99966
25930,0.99986
25940,0.99993
25950,0.99976
25960,0.99974
25970,0.99982
25980,0.99976
25990,0.9998
26000,0.99989
26010,0.9997
26020,0.99986
26030,0.99984
26040,0.99982
26050,0.9996
26060,0.9997
26070,0.99972
26080,0.99968
26090,0.99976
26100,0.99987
26110,0.99978
26120,0.99987
26130,0.99966
26140,0.99976
26150,0.9997
26160,0.99976
26170,0.99984
26180,0.99984
26190,0.99964
26200,0.99974
26210,0.99978
26220,0.9998
26230,0.99964
26240,0.99974
26250,0.99978
26260,0.99978
26270,0.99974
26280,0.9998
26290,0.99964
26300,0.99982
26310,0.99972
26320,0.99987
26330,0.99984
26340,0.99974
26350,0.99991
26360,0.99987
26370,0.99976
26380,0.9997
26390,0.99978
26400,0.99974
26410,0.99974
26420,0.99972
26430,0.99972
26440,0.9997
26450,0.99986
26460,0.9997
26470,0.99972
26480,0.99991
26490,0.99974
26500,0.99972
26510,0.9997
26520,0.99978
26530,0.99986
26540,0.9997
26550,0.99984
26560,0.9998
26570,0.99968
26580,0.9997
26590,0.99968
26600,0.99982
26610,0.9998
26620,0.99974
26630,0.9998
26640,0.9997
26650,0.99978
26660,0.9998
26670,0.99974
26680,0.99966
26690,0.9998
26700,0.99976
26710,0.99974
26720,0.99984
26730,0.99966
26740,0.9998
26750,0.9998
26760,0.99984
26770,0.99976
26780,0.99968
26790,0.99974
26800,0.99972
26810,0.9998
26820,0.9997
26830,0.99978
26840,0.99974
26850,0.99982
26860,0.99972
26870,0.99978
26880,0.99976
26890,0.99972
26900,0.99966
26910,0.99987
26920,0.99986
26930,0.99968
26940,0.99972
26950,0.99966
26960,0.99976
26970,0.9998
26980,0.99978
26990,0.99972
27000,0.99972
27010,0.99974
27020,0.99972
27030,0.99972
27040,0.99966
27050,0.9998
27060,0.9997
27070,0.9998
27080,0.99974
27090,0.99962
27100,0.99956
27110,0.9996
27120,0.99978
27130,0.99976
27140,0.99974
27150,0.9997
27160,0.99966
27170,0.99978
27180,0.99978
27190,0.99968
27200,0.9996
27210,0.99972
27220,0.99968
27230,0.99956
27240,0.99972
27250,0.99962
27260,0.9997
27270,0.99962
27280,0.9996
27290,0.99978
27300,0.99974
27310,0.99964
27320,0.99962
27330,0.9997
27340,0.99962
27350,0.99968
27360,0.99968
27370,0.99972
27380,0.9997
27390,0.99954
27400,0.99952
27410,0.99966
27420,0.99972
27430,0.99984
27440,0.99952
27450,0.99972
27460,0.9997
27470,0.99964
27480,0.99962
27490,0.99964
27500,0.99976
27510,0.9998
27520,0.9997
27530,0.9997
27540,0.99962
27550,0.99972
27560,0.99964
27570,0.99952
27580,0.99962
27590,0.99966
27600,0.99968
27610,0.99976
27620,0.9997
27630,0.9997
27640,0.99968
27650,0.9997
27660,0.99984
27670,0.9996
27680,0.99964
27690,0.99972
27700,0.99982
27710,0.99966
27720,0.9998
27730,0.99974
27740,0.99966
27750,0.99968
27760,0.99968
27770,0.99974
27780,0.99962
27790,0.9997
27800,0.9997
27810,0.99964
27820,0.99968
27830,0.99982
27840,0.99972
27850,0.99962
27860,0.99991
27870,0.99972
27880,0.99984
27890,0.99976
27900,0.99974
27910,0.99976
27920,0.99968
27930,0.99966
27940,0.9997
27950,0.9997
27960,0.9997
27970,0.99978
27980,0.99968
27990,0.99964
28000,0.99976
28010,0.99964
28020,0.99968
28030,0.99962
28040,0.9996
28050,0.99974
28060,0.99978
28070,0.99976
28080,0.9998
28090,0.99956
28100,0.99974
28110,0.99982
28120,0.99958
28130,0.99968
28140,0.99976
28150,0.99972
28160,0.99972
28170,0.99966
28180,0.99968
28190,0.9997
28200,0.99972
28210,0.99962
28220,0.99976
28230,0.99976
28240,0.99984
28250,0.99974
28260,0.99982
28270,0.9997
28280,0.99968
28290,0.99982
28300,0.99968
28310,0.99968
28320,0.99972
28330,0.99962
28340,0.9997
28350,0.99966
28360,0.99966
28370,0.9997
28380,0.99976
28390,0.99976
28400,0.99978
28410,0.99962
28420,0.99966
28430,0.99972
28440,0.99972
28450,0.99974
28460,0.9997
28470,0.99974
28480,0.99978
28490,0.99972
28500,0.9998
28510,0.9997
28520,0.99964
28530,0.99964
28540,0.9997
28550,0.99976
28560,0.99976
28570,0.99993
28580,0.99978
28590,0.99978
28600,0.9998
28610,0.99976
28620,0.9997
28630,0.99968
28640,0.99976
28650,0.99968
28660,0.9997
28670,0.99972
28680,0.99987
28690,0.99976
28700,0.99978
28710,0.99966
28720,0.99984
28730,0.99978
28740,0.9997
28750,0.99966
28760,0.9997
28770,0.99974
28780,0.9998
28790,0.99978
28800,0.99966
28810,0.99968
28820,0.99962
28830,0.99966
28840,0.99978
28850,0.9997
28860,0.9998
28870,0.99972
28880,0.9997
28890,0.99974
28900,0.9997
28910,0.99974
28920,0.9998
28930,0.99987
28940,0.9998
28950,0.99968
28960,0.9998
28970,0.99974
28980,0.99976
28990,0.99974
29000,0.99976
29010,0.99976
29020,0.99962
29030,0.99972
29040,0.99974
29050,0.99974
29060,0.99958
29070,0.99976
29080,0.99978
29090,0.9997
29100,0.99972
29110,0.99972
29120,0.99972
29130,0.9998
29140,0.99966
29150,0.99974
29160,0.99976
29170,0.99987
29180,0.99972
29190,0.9998
29200,0.99974
29210,0.9997
29220,0.99984
29230,0.9998
29240,0.99982
29250,0.99984
29260,0.9997
29270,0.99976
29280,0.99972
29290,0.99978
29300,0.99972
29310,0.99976
29320,0.99978
29330,0.9997
29340,0.9998
29350,0.99968
29360,0.9998
29370,0.99974
29380,0.99972
29390,0.99972
29400,0.9996
29410,0.99974
29420,0.99982
29430,0.99984
29440,0.99976
29450,0.99978
29460,0.99976
29470,0.99984
29480,0.9997
29490,0.99978
29500,0.99984
29510,0.99966
29520,0.99978
29530,0.99978
29540,0.99982
29550,0.9998
29560,0.99986
29570,0.99986
29580,0.99978
29590,0.99982
29600,0.99976
29610,0.99982
29620,0.99976
29630,0.99968
29640,0.99968
29650,0.9997
29660,0.99972
29670,0.9998
29680,0.9997
29690,0.9998
29700,0.9997
29710,0.99966
29720,0.99982
29730,0.99972
29740,0.9998
29750,0.99984
29760,0.99976
29770,0.9998
29780,0.99966
29790,0.99964
29800,0.99974
29810,0.99982
29820,0.99966
29830,0.9998
29840,0.99978
29850,0.99976
29860,0.9998
29870,0.99966
29880,0.9998
29890,0.9998
29900,0.9997
29910,0.99972
29920,0.99978
29930,0.9998
29940,0.99984
29950,0.9998
29960,0.9998
29970,0.99986
29980,0.99989
29990,0.99978
30000,0.99984
30010,0.99978
30020,0.99984
30030,0.99968
30040,0.99976
30050,0.99974
30060,0.99984
30070,0.99986
30080,0.99964
30090,0.9997
30100,0.99976
30110,0.99972
30120,0.99976
30130,0.99978
30140,0.99986
30150,0.99984
30160,0.99986
30170,0.99976
30180,0.99978
30190,0.99978
30200,0.99974
30210,0.99991
30220,0.9998
30230,0.99952
30240,0.99964
30250,0.99972
30260,0.99982
30270,0.99964
30280,0.99968
30290,0.99986
30300,0.99974
30310,0.99982
30320,0.9998
30330,0.99968
30340,0.99978
30350,0.99987
30360,0.99986
30370,0.99984
30380,0.99974
30390,0.99978
30400,0.99964
30410,0.99962
30420,0.99978
30430,0.99989
30440,0.99984
30450,0.99987
30460,0.99976
30470,0.99976
30480,0.99974
30490,0.99976
30500,0.99989
30510,0.99972
30520,0.99966
30530,0.99974
30540,0.99984
30550,0.99995
30560,0.9997
30570,0.99974
30580,0.9998
30590,0.99978
30600,0.99976
30610,0.99984
30620,0.99982
30630,0.99984
30640,0.99978
30650,0.9998
30660,0.99978
30670,0.99968
30680,0.9997
30690,0.99968
30700,0.99987
30710,0.99984
30720,0.99974
30730,0.99984
30740,0.99986
30750,0.99968
30760,0.99984
30770,0.99982
30780,0.99986
30790,0.99976
30800,0.99978
30810,0.99958
30820,0.99984
30830,0.99982
30840,0.99987
30850,0.99962
30860,0.9998
30870,0.9998
30880,0.99978
30890,0.99974
30900,0.99978
30910,0.99976
30920,0.99974
30930,0.99976
30940,0.9998
30950,0.99972
30960,0.99978
30970,0.99976
30980,0.99982
30990,0.99976
31000,0.99984
31010,0.9998
31020,0.99978
31030,0.9997
31040,0.9997
31050,0.99974
31060,0.99968
31070,0.99976
31080,0.99987
31090,0.99978
31100,0.99972
31110,0.99982
31120,0.99989
31130,0.99976
31140,0.99978
31150,0.99989
31160,0.99978
31170,0.99982
31180,0.99978
31190,0.99976
31200,0.99982
31210,0.99978
31220,0.99984
31230,0.99982
31240,0.99972
31250,0.9998
31260,0.99978
31270,0.99972
31280,0.99978
31290,0.9998
31300,0.99976
31310,0.99974
31320,0.99968
31330,0.99968
31340,0.99966
31350,0.99954
31360,0.9998
31370,0.99966
31380,0.9997
31390,0.9997
31400,0.99974
31410,0.99986
31420,0.99978
31430,0.99964
31440,0.99964
31450,0.9998
31460,0.9998
31470,0.99968
31480,0.99984
31490,0.99968
31500,0.99962
31510,0.99966
31520,0.9997
31530,0.99968
31540,0.9998
31550,0.99968
31560,0.9996
31570,0.99972
31580,0.99966
31590,0.99964
31600,0.99968
31610,0.99972
31620,0.99962
31630,0.99966
31640,0.9997
31650,0.99964
31660,0.9997
31670,0.99958
31680,0.99972
31690,0.99978
31700,0.99968
31710,0.9997
31720,0.99962
31730,0.99962
31740,0.9996
31750,0.99964
31760,0.99964
31770,0.99972
31780,0.99956
31790,0.99968
31800,0.99972
31810,0.99964
31820,0.99974
31830,0.99964
31840,0.99958
31850,0.99976
31860,0.99964
31870,0.99954
31880,0.99966
31890,0.99954
31900,0.99964
31910,0.99966
31920,0.99966
31930,0.99966
31940,0.99956
31950,0.99966
31960,0.99968
31970,0.9997
31980,0.9997
31990,0.99962
32000,0.99966
32010,0.99968
32020,0.99968
32030,0.99956
32040,0.9996
32050,0.99972
32060,0.9998
32070,0.99962
32080,0.99964
32090,0.99956
32100,0.99958
32110,0.99964
32120,0.99956
32130,0.99968
32140,0.99966
32150,0.9998
32160,0.99962
32170,0.9996
32180,0.99954
32190,0.99956
32200,0.9997
32210,0.99956
32220,0.99968
32230,0.99956
32240,0.99976
32250,0.99954
32260,0.99974
32270,0.99964
32280,0.99972
32290,0.99954
32300,0.99982
32310,0.99956
32320,0.99966
32330,0.99956
32340,0.9996
32350,0.99972
32360,0.99972
32370,0.99968
32380,0.9996
32390,0.99958
32400,0.99972
32410,0.99966
32420,0.99972
32430,0.99948
32440,0.99962
32450,0.99954
32460,0.99964
32470,0.9997
32480,0.99958
32490,0.99958
32500,0.9997
32510,0.9996
32520,0.99962
32530,0.9997
32540,0.99958
32550,0.9997
32560,0.99986
32570,0.99978
32580,0.9998
32590,0.99982
32600,0.99968
32610,0.99962
32620,0.99958
32630,0.9996
32640,0.9997
32650,0.99972
32660,0.99962
32670,0.99972
32680,0.99966
32690,0.99972
32700,0.99966
32710,0.99976
32720,0.99962
32730,0.99987
32740,0.99964
32750,0.9997
32760,0.99968
32770,0.99968
32780,0.99962
32790,0.99958
32800,0.99966
32810,0.9998
32820,0.9998
32830,0.9997
32840,0.9997
32850,0.9997
32860,0.9997
32870,0.9997
32880,0.99962
32890,0.99978
32900,0.99972
32910,0.99964
32920,0.99964
32930,0.99976
32940,0.99968
32950,0.99984
32960,0.9997
32970,0.99972
32980,0.9997
32990,0.99962
33000,0.99958
33010,0.99962
33020,0.99968
33030,0.99974
33040,0.99966
33050,0.99966
33060,0.99972
33070,0.99972
33080,0.9996
33090,0.9997
33100,0.9997
33110,0.99968
33120,0.99954
33130,0.99972
33140,0.99968
33150,0.99978
33160,0.99968
33170,0.9997
33180,0.9997
33190,0.9996
33200,0.99968
33210,0.99974
33220,0.9997
33230,0.99966
33240,0.99978
33250,0.99976
33260,0.9997
33270,0.99962
33280,0.99972
33290,0.99972
33300,0.99974
33310,0.99987
33320,0.99966
33330,0.99974
33340,0.99974
33350,0.9997
33360,0.9997
33370,0.9997
33380,0.9997
33390,0.99962
33400,0.99974
33410,0.99976
33420,0.99984
33430,0.99972
33440,0.99968
33450,0.99976
33460,0.9997
33470,0.9997
33480,0.99978
33490,0.9998
33500,0.99978
33510,0.9997
33520,0.9997
33530,0.99974
33540,0.99978
33550,0.99976
33560,0.99972
33570,0.99984
33580,0.99989
33590,0.9998
33600,0.99972
33610,0.9997
33620,0.99974
33630,0.99974
33640,0.9997
33650,0.9998
33660,0.9998
33670,0.99993
33680,0.99976
33690,0.99982
33700,0.99982
33710,0.99978
33720,0.99976
33730,0.99972
33740,0.99976
33750,0.99982
33760,0.99966
33770,0.99976
33780,0.99976
33790,0.99966
33800,0.99978
33810,0.99976
33820,0.99976
33830,0.99984
33840,0.99974
33850,0.9998
33860,0.99978
33870,0.99968
33880,0.9998
33890,0.99978
33900,0.99968
33910,0.99976
33920,0.99989
33930,0.99966
33940,0.99972
33950,0.99972
33960,0.99972
33970,0.99974
33980,0.99976
33990,0.99972
34000,0.99968
34010,0.9998
34020,0.99972
34030,0.99972
34040,0.99974
34050,0.99976
34060,0.9998
34070,0.99976
34080,0.9997
34090,0.99978
34100,0.99972
34110,0.99982
34120,0.9998
34130,0.99974
34140,0.99974
34150,0.99976
34160,0.99966
34170,0.99966
34180,0.99982
34190,0.99984
34200,0.99972
34210,0.99984
34220,0.99972
34230,0.99974
34240,0.99974
34250,0.99976
34260,0.99982
34270,0.99974
34280,0.9997
34290,0.99982
34300,0.9997
34310,0.99984
34320,0.99966
34330,0.99976
34340,0.99978
34350,0.99978
34360,0.99968
34370,0.99974
34380,0.99978
34390,0.99978
34400,0.99987
34410,0.99982
34420,0.99972
34430,0.99976
34440,0.99987
34450,0.99987
34460,0.99974
34470,0.99986
34480,0.99976
34490,0.99978
34500,0.99972
34510,0.99984
34520,0.99972
34530,0.99968
34540,0.9998
34550,0.99972
34560,0.99974
34570,0.99982
34580,0.99972
34590,0.99982
34600,0.99972
34610,0.99984
34620,0.99968
34630,0.99984
34640,0.99978
34650,0.99976
34660,0.99984
34670,0.9998
34680,0.99984
34690,0.99974
34700,0.9998
34710,0.9997
34720,0.99978
34730,0.99978
34740,0.99984
34750,0.99982
34760,0.99972
34770,0.99972
34780,0.99986
34790,0.99982
34800,0.99982
34810,0.99974
34820,0.9998
34830,0.99968
34840,0.99972
34850,0.99968
34860,0.99972
34870,0.99974
34880,0.99982
34890,0.9997
34900,0.9998
34910,0.99974
34920,0.9998
34930,0.9997
34940,0.99976
34950,0.99976
34960,0.99984
34970,0.9997
34980,0.99982
34990,0.99987
35000,0.99978
35010,0.99972
35020,0.99984
35030,0.99978
35040,0.99986
35050,0.99987
35060,0.99974
35070,0.99972
35080,0.99987
35090,0.99982
35100,0.9998
35110,0.99984
35120,0.99968
35130,0.99984
35140,0.9997
35150,0.99987
35160,0.99972
35170,0.99964
35180,0.99976
35190,0.99984
35200,0.99982
35210,0.99974
35220,0.99974
35230,0.99982
35240,0.99974
35250,0.99978
35260,0.9998
35270,0.99974
35280,0.99986
35290,0.99972
35300,0.99972
35310,0.99964
35320,0.9997
35330,0.9998
35340,0.99978
35350,0.99964
35360,0.99976
35370,0.99974
35380,0.99976
35390,0.99976
35400,0.99964
35410,0.99974
35420,0.99972
35430,0.99976
35440,0.99968
35450,0.99976
35460,0.9997
35470,0.9998
35480,0.9997
35490,0.99978
35500,0.99972
35510,0.99976
35520,0.99974
35530,0.99984
35540,0.99976
35550,0.99978
35560,0.99987
35570,0.99978
35580,0.99974
35590,0.9997
35600,0.99976
35610,0.99978
35620,0.99984
35630,0.99989
35640,0.99984
35650,0.99984
35660,0.99982
35670,0.99984
35680,0.9997
35690,0.99962
35700,0.99972
35710,0.99978
35720,0.99978
35730,0.99974
35740,0.99974
35750,0.99993
35760,0.99976
35770,0.99978
35780,0.99974
35790,0.99982
35800,0.9998
35810,0.99987
35820,0.9997
35830,0.99984
35840,0.99976
35850,0.99976
35860,0.9998
35870,0.99976
35880,0.99972
35890,0.99978
35900,0.99978
35910,0.99978
35920,0.99976
